Data from Capture2_10-02-31-410.txt Node
Date: Wed Nov 13 10:02:31 CET 2019
User: Student
Spectrometer: FLMS03065
Trigger mode: 0
Integration Time (sec): 1,000000E-1
Scans to average: 1
Electric dark correction enabled: true
Nonlinearity correction enabled: false
Boxcar width: 0
XAxis mode: Wavelengths
Number of Pixels in Spectrum: 2048
>>>>>Begin Spectral Data<<<<<
339,621	-78,28
340,007	-78,28
340,392	-78,28
340,778	-49,15
341,164	-83,13
341,549	-51,58
341,935	38,23
342,32	-27,31
342,706	-56,43
343,091	-63,71
343,476	-85,56
343,862	-22,45
344,247	-10,32
344,632	-29,73
345,017	13,96
345,402	-34,59
345,787	45,51
346,172	40,66
346,557	26,09
346,942	125,61
347,327	91,63
347,712	132,89
348,096	106,19
348,481	147,45
348,866	249,4
349,25	169,3
349,635	205,71
350,019	302,8
350,404	266,39
350,788	205,71
351,172	300,37
351,557	280,95
351,941	285,81
352,325	222,7
352,709	300,37
353,093	297,94
353,478	288,23
353,862	358,62
354,245	322,21
354,629	302,8
355,013	365,9
355,397	390,18
355,781	293,09
356,165	373,19
356,548	285,81
356,932	312,5
357,315	285,81
357,699	368,33
358,082	382,89
358,466	280,95
358,849	276,1
359,233	285,81
359,616	268,81
359,999	329,5
360,382	196
360,765	334,35
361,149	324,64
361,532	229,98
361,915	322,21
362,297	305,22
362,68	300,37
363,063	310,08
363,446	302,8
363,829	373,19
364,211	334,35
364,594	220,27
364,977	322,21
365,359	314,93
365,742	295,51
366,124	271,24
366,507	244,54
366,889	300,37
367,271	329,5
367,654	266,39
368,036	254,25
368,418	261,53
368,8	263,96
369,182	297,94
369,564	232,41
369,946	329,5
370,328	331,92
370,71	295,51
371,092	312,5
371,474	268,81
371,855	254,25
372,237	310,08
372,619	329,5
373	280,95
373,382	293,09
373,763	285,81
374,145	278,52
374,526	268,81
374,907	341,63
375,289	271,24
375,67	305,22
376,051	361,05
376,432	220,27
376,813	305,22
377,194	351,34
377,575	251,82
377,956	295,51
378,337	327,07
378,718	300,37
379,099	280,95
379,48	297,94
379,86	319,79
380,241	293,09
380,622	346,49
381,002	273,67
381,383	278,52
381,763	278,52
382,144	378,04
382,524	341,63
382,904	300,37
383,285	273,67
383,665	273,67
384,045	268,81
384,425	334,35
384,805	312,5
385,185	324,64
385,565	256,68
385,945	302,8
386,325	295,51
386,705	339,2
387,085	314,93
387,464	290,66
387,844	314,93
388,224	276,1
388,603	356,19
388,983	353,77
389,362	278,52
389,742	339,2
390,121	314,93
390,501	288,23
390,88	271,24
391,259	283,38
391,638	307,65
392,017	246,97
392,397	283,38
392,776	273,67
393,155	227,55
393,534	278,52
393,912	208,13
394,291	285,81
394,67	344,06
395,049	329,5
395,428	341,63
395,806	348,91
396,185	329,5
396,563	285,81
396,942	370,76
397,32	314,93
397,699	239,69
398,077	302,8
398,456	363,48
398,834	324,64
399,212	353,77
399,59	283,38
399,968	237,26
400,346	329,5
400,724	373,19
401,102	310,08
401,48	373,19
401,858	310,08
402,236	399,88
402,614	314,93
402,992	336,78
403,369	368,33
403,747	409,59
404,124	348,91
404,502	314,93
404,879	341,63
405,257	288,23
405,634	319,79
406,012	268,81
406,389	295,51
406,766	314,93
407,143	327,07
407,52	312,5
407,898	254,25
408,275	305,22
408,652	329,5
409,029	293,09
409,405	348,91
409,782	300,37
410,159	290,66
410,536	327,07
410,913	334,35
411,289	341,63
411,666	356,19
412,042	312,5
412,419	263,96
412,795	358,62
413,172	256,68
413,548	380,47
413,924	300,37
414,301	329,5
414,677	356,19
415,053	329,5
415,429	392,6
415,805	390,18
416,181	273,67
416,557	327,07
416,933	346,49
417,309	285,81
417,685	271,24
418,061	334,35
418,436	288,23
418,812	283,38
419,188	348,91
419,563	288,23
419,939	373,19
420,314	341,63
420,69	353,77
421,065	322,21
421,44	361,05
421,816	431,44
422,191	324,64
422,566	339,2
422,941	261,53
423,316	344,06
423,691	358,62
424,066	348,91
424,441	356,19
424,816	346,49
425,191	407,17
425,566	322,21
425,94	312,5
426,315	220,27
426,69	307,65
427,064	336,78
427,439	378,04
427,813	402,31
428,188	322,21
428,562	385,32
428,936	356,19
429,311	312,5
429,685	382,89
430,059	344,06
430,433	419,3
430,807	317,36
431,181	290,66
431,555	305,22
431,929	314,93
432,303	344,06
432,677	288,23
433,051	390,18
433,425	295,51
433,798	339,2
434,172	358,62
434,546	302,8
434,919	329,5
435,293	358,62
435,666	312,5
436,04	307,65
436,413	378,04
436,786	370,76
437,159	424,16
437,533	402,31
437,906	346,49
438,279	288,23
438,652	344,06
439,025	385,32
439,398	397,46
439,771	458,14
440,144	414,45
440,516	329,5
440,889	385,32
441,262	380,47
441,635	334,35
442,007	399,88
442,38	375,61
442,752	370,76
443,125	314,93
443,497	353,77
443,87	344,06
444,242	361,05
444,614	382,89
444,986	392,6
445,359	382,89
445,731	358,62
446,103	407,17
446,475	392,6
446,847	402,31
447,219	305,22
447,59	390,18
447,962	409,59
448,334	373,19
448,706	324,64
449,077	397,46
449,449	378,04
449,821	378,04
450,192	407,17
450,564	378,04
450,935	419,3
451,306	409,59
451,678	375,61
452,049	399,88
452,42	331,92
452,791	353,77
453,163	353,77
453,534	351,34
453,905	348,91
454,276	378,04
454,647	373,19
455,017	339,2
455,388	455,71
455,759	399,88
456,13	312,5
456,5	363,48
456,871	370,76
457,242	433,87
457,612	426,58
457,983	378,04
458,353	479,98
458,723	392,6
459,094	336,78
459,464	424,16
459,834	477,56
460,204	509,11
460,575	431,44
460,945	433,87
461,315	438,72
461,685	441,15
462,055	484,84
462,425	465,42
462,794	390,18
463,164	431,44
463,534	509,11
463,904	458,14
464,273	492,12
464,643	436,29
465,012	528,53
465,382	523,67
465,751	513,96
466,121	501,83
466,49	598,92
466,859	601,34
467,228	584,35
467,598	501,83
467,967	594,06
468,336	666,88
468,705	657,17
469,074	640,18
469,443	652,32
469,812	693,58
470,181	691,15
470,549	802,8
470,918	729,99
471,287	853,78
471,655	805,23
472,024	800,38
472,393	890,18
472,761	863,48
473,129	836,78
473,498	982,42
473,866	984,85
474,234	1035,82
474,603	1021,25
474,971	1130,48
475,339	1203,3
475,707	1217,86
476,075	1278,54
476,443	1319,8
476,811	1344,07
477,179	1433,88
477,547	1446,02
477,915	1550,39
478,282	1628,06
478,65	1659,61
479,018	1768,84
479,385	1919,33
479,753	2030,98
480,12	2011,56
480,488	2118,36
480,855	2208,17
481,222	2409,62
481,59	2533,41
481,957	2581,96
482,324	2776,14
482,691	2800,41
483,058	2897,5
483,425	3186,34
483,792	3322,26
484,159	3404,79
484,526	3645,08
484,893	3761,59
485,26	3878,09
485,627	4188,78
485,993	4511,6
486,36	4586,84
486,727	4810,15
487,093	5115,98
487,46	5198,5
487,826	5725,21
488,192	5955,8
488,559	6232,5
488,925	6526,19
489,291	6849,01
489,658	7375,72
490,024	7756,8
490,39	7812,62
490,756	8572,34
491,122	8756,81
491,488	9278,66
491,854	9671,87
492,219	10152,46
492,585	10875,78
492,951	11312,68
493,317	11900,06
493,682	12383,08
494,048	13016,59
494,413	13635,53
494,779	14353,99
495,144	14972,93
495,51	16023,91
495,875	16434,11
496,24	17465,68
496,606	17892,88
496,971	18931,73
497,336	19625,91
497,701	20681,75
498,066	21618,66
498,431	22774,02
498,796	23827,43
499,161	24897,84
499,526	25839,6
499,89	27298,36
500,255	28788,68
500,62	29728,01
500,985	30897,93
501,349	32596,99
501,714	33254,76
502,078	35048,48
502,443	36686,86
502,807	37859,21
503,171	39427,19
503,536	41053,43
503,9	42065,58
504,264	44075,32
504,628	45970,98
504,992	47187,02
505,356	48349,66
505,72	49997,74
506,084	51089,99
506,448	53337,6
506,812	54306,06
507,176	55638,61
507,539	57036,69
507,903	57233,29
508,267	58798,85
508,63	59835,28
508,994	60638,69
509,357	61061,02
509,721	61978,51
510,084	62835,32
510,447	63102,32
510,811	63102,32
511,174	63102,32
511,537	63102,32
511,9	63102,32
512,263	63102,32
512,626	63102,32
512,989	63102,32
513,352	63102,32
513,715	63102,32
514,078	63102,32
514,441	63102,32
514,803	63102,32
515,166	63102,32
515,529	63102,32
515,891	63102,32
516,254	63102,32
516,616	63102,32
516,979	63102,32
517,341	63102,32
517,703	63102,32
518,066	63102,32
518,428	63102,32
518,79	63102,32
519,152	63102,32
519,514	63102,32
519,876	63102,32
520,238	63102,32
520,6	63102,32
520,962	63102,32
521,324	63102,32
521,685	63102,32
522,047	63102,32
522,409	63102,32
522,77	63102,32
523,132	63102,32
523,494	63102,32
523,855	63102,32
524,216	63102,32
524,578	63102,32
524,939	63102,32
525,3	63102,32
525,662	63102,32
526,023	63102,32
526,384	63102,32
526,745	63102,32
527,106	63102,32
527,467	63102,32
527,828	63102,32
528,189	63102,32
528,549	63102,32
528,91	63102,32
529,271	63102,32
529,631	63102,32
529,992	63102,32
530,353	63102,32
530,713	62575,61
531,074	62112,01
531,434	61507,63
531,794	61133,84
532,155	60621,7
532,515	59966,35
532,875	59641,1
533,235	58553,7
533,595	58041,56
533,955	57793,98
534,315	57131,35
534,675	56415,32
535,035	55910,46
535,395	55257,53
535,755	54725,97
536,114	53645,86
536,474	53298,77
536,834	51978,36
537,193	51951,66
537,553	50376,39
537,912	49373,95
538,272	48187,04
538,631	47784,12
538,991	46842,35
539,35	46041,37
539,709	45233,11
540,068	44165,13
540,427	43953,96
540,786	42623,84
541,146	41820,43
541,504	41351,98
541,863	40332,54
542,222	39194,18
542,581	37737,84
542,94	37587,36
543,299	36558,21
543,657	35936,85
544,016	34793,62
544,374	34958,67
544,733	33412,53
545,091	32737,77
545,45	31509,59
545,808	31211,04
546,167	29987,72
546,525	29859,08
546,883	28783,82
547,241	27800,8
547,599	27448,85
547,957	26613,88
548,315	25820,18
548,673	25346,87
549,031	24718,22
549,389	24082,29
549,747	23451,21
550,105	22757,03
550,462	22375,95
550,82	21128,36
551,178	20650,2
551,535	20310,39
551,893	19929,31
552,25	19045,81
552,608	18936,58
552,965	18264,24
553,322	17968,12
553,679	17278,79
554,037	16594,31
554,394	16489,94
554,751	15868,57
555,108	15540,9
555,465	15196,23
555,822	14980,21
556,179	14276,31
556,536	14145,24
556,892	13735,04
557,249	13586,98
557,606	13191,35
557,962	12829,69
558,319	12443,76
558,676	11943,75
559,032	12004,43
559,389	11584,52
559,745	11300,54
560,101	10681,6
560,458	10572,37
560,814	10251,98
561,17	10218
561,526	9967,99
561,882	9557,79
562,238	9531,09
562,594	9074,78
562,95	8921,86
563,306	8739,82
563,662	8543,22
564,018	8366,03
564,373	8239,81
564,729	8147,58
565,085	7839,32
565,44	7691,26
565,796	7424,27
566,151	7346,59
566,506	7009,21
566,862	6897,56
567,217	6659,69
567,572	6628,14
567,928	6477,65
568,283	6268,91
568,638	6227,65
568,993	5895,12
569,348	5846,57
569,703	5630,55
570,058	5501,91
570,413	5334,43
570,767	5300,45
571,122	5077,14
571,477	4904,81
571,831	4914,52
572,186	4902,38
572,541	4647,52
572,895	4560,14
573,25	4484,9
573,604	4271,3
573,958	4259,17
574,313	4113,53
574,667	4074,7
575,021	3875,67
575,375	3827,12
575,729	3613,53
576,083	3662,07
576,437	3443,62
576,791	3470,32
577,145	3465,47
577,499	3281
577,853	3164,49
578,206	3069,83
578,56	3033,42
578,914	3060,12
579,267	2963,03
579,621	2822,25
579,974	2732,45
580,328	2669,34
580,681	2698,46
581,034	2722,74
581,388	2584,38
581,741	2480,01
582,094	2458,17
582,447	2351,37
582,8	2232,44
583,153	2300,4
583,506	2222,73
583,859	2227,58
584,212	2125,64
584,565	2021,27
584,917	2035,83
585,27	2050,4
585,623	1970,3
585,975	1890,2
586,328	1912,04
586,68	1987,29
587,033	1868,35
587,385	1822,24
587,737	1652,33
588,09	1725,15
588,442	1652,33
588,794	1693,59
589,146	1589,22
589,498	1630,49
589,85	1594,08
590,202	1577,09
590,554	1523,69
590,906	1482,43
591,258	1395,05
591,61	1494,56
591,961	1402,33
592,313	1317,37
592,665	1297,96
593,016	1259,12
593,368	1307,67
593,719	1246,99
594,071	1229,99
594,422	1176,6
594,773	1162,03
595,125	1186,3
595,476	1174,17
595,827	1094,07
596,178	1145,04
596,529	1001,84
596,88	1043,1
597,231	948,44
597,582	1040,67
597,933	1064,94
598,284	1004,26
598,634	989,7
598,985	996,98
599,336	965,43
599,686	929,02
600,037	868,34
600,387	904,75
600,738	977,56
601,088	848,92
601,438	967,85
601,789	800,38
602,139	873,19
602,489	899,89
602,839	853,78
603,189	870,77
603,539	790,67
603,889	793,09
604,239	802,8
604,589	793,09
604,939	729,99
605,289	654,74
605,638	763,97
605,988	734,84
606,338	744,55
606,687	567,36
607,037	645,03
607,386	729,99
607,736	725,13
608,085	700,86
608,434	664,45
608,783	683,87
609,133	659,6
609,482	628,04
609,831	640,18
610,18	674,16
610,529	659,6
610,878	700,86
611,227	725,13
611,576	652,32
611,924	683,87
612,273	705,71
612,622	679,02
612,97	657,17
613,319	625,62
613,667	737,27
614,016	676,59
614,364	579,5
614,713	598,92
615,061	562,51
615,409	579,5
615,757	632,9
616,106	555,23
616,454	530,95
616,802	579,5
617,15	579,5
617,498	543,09
617,846	591,64
618,193	458,14
618,541	589,21
618,889	598,92
619,237	482,41
619,584	526,1
619,932	518,82
620,279	482,41
620,627	492,12
620,974	511,54
621,322	509,11
621,669	479,98
622,016	560,08
622,364	496,97
622,711	458,14
623,058	392,6
623,405	407,17
623,752	433,87
624,099	441,15
624,446	494,55
624,793	416,88
625,14	409,59
625,486	370,76
625,833	407,17
626,18	419,3
626,526	477,56
626,873	407,17
627,219	416,88
627,566	443,57
627,912	499,4
628,259	475,13
628,605	433,87
628,951	433,87
629,297	414,45
629,643	431,44
629,989	370,76
630,335	448,43
630,681	492,12
631,027	462,99
631,373	455,71
631,719	431,44
632,065	450,86
632,411	506,68
632,756	438,72
633,102	414,45
633,447	412,02
633,793	373,19
634,138	460,57
634,484	353,77
634,829	433,87
635,174	310,08
635,52	446
635,865	499,4
636,21	431,44
636,555	443,57
636,9	419,3
637,245	424,16
637,59	426,58
637,935	397,46
638,28	404,74
638,625	397,46
638,969	414,45
639,314	385,32
639,659	336,78
640,003	336,78
640,348	283,38
640,692	336,78
641,037	312,5
641,381	390,18
641,725	346,49
642,07	324,64
642,414	268,81
642,758	358,62
643,102	319,79
643,446	395,03
643,79	348,91
644,134	380,47
644,478	351,34
644,822	414,45
645,166	429,01
645,509	424,16
645,853	363,48
646,197	363,48
646,54	312,5
646,884	412,02
647,227	293,09
647,571	450,86
647,914	280,95
648,257	392,6
648,601	397,46
648,944	460,57
649,287	305,22
649,63	438,72
649,973	319,79
650,316	390,18
650,659	378,04
651,002	392,6
651,345	402,31
651,688	395,03
652,03	387,75
652,373	322,21
652,716	334,35
653,058	348,91
653,401	385,32
653,743	341,63
654,086	290,66
654,428	421,73
654,771	361,05
655,113	448,43
655,455	446
655,797	419,3
656,139	446
656,481	368,33
656,823	353,77
657,165	375,61
657,507	397,46
657,849	361,05
658,191	414,45
658,533	290,66
658,874	312,5
659,216	370,76
659,558	348,91
659,899	380,47
660,241	317,36
660,582	344,06
660,924	348,91
661,265	234,83
661,606	402,31
661,947	259,11
662,289	353,77
662,63	365,9
662,971	319,79
663,312	256,68
663,653	327,07
663,994	353,77
664,335	361,05
664,675	399,88
665,016	373,19
665,357	341,63
665,697	285,81
666,038	363,48
666,379	334,35
666,719	358,62
667,06	363,48
667,4	314,93
667,74	329,5
668,081	368,33
668,421	288,23
668,761	368,33
669,101	295,51
669,441	331,92
669,781	322,21
670,121	336,78
670,461	351,34
670,801	353,77
671,141	324,64
671,481	348,91
671,82	361,05
672,16	300,37
672,499	334,35
672,839	324,64
673,179	370,76
673,518	285,81
673,857	283,38
674,197	290,66
674,536	334,35
674,875	324,64
675,214	305,22
675,554	271,24
675,893	307,65
676,232	382,89
676,571	300,37
676,91	348,91
677,248	317,36
677,587	356,19
677,926	324,64
678,265	361,05
678,603	375,61
678,942	395,03
679,28	331,92
679,619	407,17
679,957	319,79
680,296	331,92
680,634	307,65
680,972	324,64
681,311	341,63
681,649	268,81
681,987	363,48
682,325	351,34
682,663	310,08
683,001	339,2
683,339	365,9
683,677	382,89
684,015	324,64
684,352	283,38
684,69	385,32
685,028	370,76
685,365	378,04
685,703	436,29
686,04	373,19
686,378	297,94
686,715	353,77
687,053	361,05
687,39	331,92
687,727	402,31
688,064	302,8
688,401	416,88
688,738	402,31
689,076	305,22
689,412	363,48
689,749	314,93
690,086	302,8
690,423	378,04
690,76	397,46
691,097	319,79
691,433	310,08
691,77	397,46
692,106	395,03
692,443	254,25
692,779	278,52
693,116	361,05
693,452	361,05
693,788	331,92
694,124	310,08
694,461	312,5
694,797	339,2
695,133	324,64
695,469	285,81
695,805	268,81
696,141	324,64
696,477	312,5
696,812	358,62
697,148	431,44
697,484	283,38
697,82	271,24
698,155	310,08
698,491	385,32
698,826	314,93
699,162	353,77
699,497	263,96
699,832	278,52
700,168	302,8
700,503	378,04
700,838	353,77
701,173	300,37
701,508	317,36
701,843	382,89
702,178	307,65
702,513	329,5
702,848	322,21
703,183	351,34
703,517	285,81
703,852	341,63
704,187	263,96
704,521	276,1
704,856	392,6
705,19	363,48
705,525	348,91
705,859	310,08
706,193	300,37
706,528	290,66
706,862	368,33
707,196	288,23
707,53	273,67
707,864	268,81
708,198	297,94
708,532	297,94
708,866	351,34
709,2	217,84
709,534	322,21
709,868	341,63
710,201	341,63
710,535	319,79
710,868	397,46
711,202	373,19
711,535	344,06
711,869	373,19
712,202	351,34
712,536	322,21
712,869	300,37
713,202	319,79
713,535	280,95
713,868	353,77
714,201	412,02
714,534	283,38
714,867	395,03
715,2	380,47
715,533	344,06
715,866	271,24
716,198	378,04
716,531	288,23
716,864	348,91
717,196	363,48
717,529	312,5
717,861	307,65
718,194	317,36
718,526	399,88
718,858	348,91
719,191	310,08
719,523	390,18
719,855	341,63
720,187	300,37
720,519	346,49
720,851	375,61
721,183	300,37
721,515	300,37
721,847	307,65
722,178	395,03
722,51	322,21
722,842	361,05
723,173	341,63
723,505	327,07
723,837	395,03
724,168	324,64
724,499	329,5
724,831	397,46
725,162	312,5
725,493	297,94
725,824	295,51
726,156	283,38
726,487	399,88
726,818	363,48
727,149	278,52
727,48	382,89
727,81	358,62
728,141	310,08
728,472	363,48
728,803	341,63
729,133	295,51
729,464	293,09
729,795	336,78
730,125	368,33
730,455	358,62
730,786	319,79
731,116	319,79
731,446	380,47
731,777	312,5
732,107	322,21
732,437	399,88
732,767	331,92
733,097	407,17
733,427	295,51
733,757	242,12
734,087	295,51
734,417	280,95
734,746	293,09
735,076	319,79
735,406	361,05
735,735	285,81
736,065	414,45
736,394	416,88
736,724	351,34
737,053	271,24
737,382	378,04
737,712	404,74
738,041	302,8
738,37	295,51
738,699	307,65
739,028	375,61
739,357	278,52
739,686	382,89
740,015	334,35
740,344	356,19
740,673	273,67
741,001	278,52
741,33	368,33
741,659	329,5
741,987	336,78
742,316	378,04
742,644	249,4
742,972	312,5
743,301	254,25
743,629	365,9
743,957	399,88
744,286	341,63
744,614	256,68
744,942	378,04
745,27	365,9
745,598	242,12
745,926	324,64
746,254	358,62
746,581	336,78
746,909	375,61
747,237	327,07
747,565	314,93
747,892	283,38
748,22	259,11
748,547	302,8
748,875	365,9
749,202	363,48
749,529	382,89
749,857	312,5
750,184	378,04
750,511	307,65
750,838	285,81
751,165	344,06
751,492	285,81
751,819	327,07
752,146	327,07
752,473	339,2
752,8	378,04
753,126	339,2
753,453	361,05
753,78	341,63
754,106	356,19
754,433	370,76
754,759	336,78
755,086	339,2
755,412	344,06
755,738	390,18
756,065	300,37
756,391	307,65
756,717	244,54
757,043	339,2
757,369	446
757,695	424,16
758,021	331,92
758,347	300,37
758,673	346,49
758,999	317,36
759,324	288,23
759,65	300,37
759,976	312,5
760,301	322,21
760,627	288,23
760,952	385,32
761,278	322,21
761,603	285,81
761,928	358,62
762,253	263,96
762,579	370,76
762,904	310,08
763,229	314,93
763,554	317,36
763,879	285,81
764,204	314,93
764,529	293,09
764,853	339,2
765,178	375,61
765,503	324,64
765,828	363,48
766,152	319,79
766,477	370,76
766,801	361,05
767,126	397,46
767,45	358,62
767,774	341,63
768,099	358,62
768,423	314,93
768,747	317,36
769,071	302,8
769,395	237,26
769,719	380,47
770,043	314,93
770,367	322,21
770,691	280,95
771,014	271,24
771,338	344,06
771,662	261,53
771,986	271,24
772,309	365,9
772,633	302,8
772,956	378,04
773,279	331,92
773,603	351,34
773,926	341,63
774,249	353,77
774,573	297,94
774,896	363,48
775,219	363,48
775,542	290,66
775,865	348,91
776,188	297,94
776,511	237,26
776,833	329,5
777,156	283,38
777,479	429,01
777,801	297,94
778,124	280,95
778,447	341,63
778,769	285,81
779,091	363,48
779,414	259,11
779,736	327,07
780,058	305,22
780,381	329,5
780,703	324,64
781,025	288,23
781,347	361,05
781,669	339,2
781,991	312,5
782,313	344,06
782,635	322,21
782,956	319,79
783,278	278,52
783,6	378,04
783,921	295,51
784,243	271,24
784,565	331,92
784,886	302,8
785,207	365,9
785,529	324,64
785,85	375,61
786,171	280,95
786,492	271,24
786,814	327,07
787,135	344,06
787,456	283,38
787,777	385,32
788,098	297,94
788,418	346,49
788,739	300,37
789,06	319,79
789,381	341,63
789,701	307,65
790,022	346,49
790,342	346,49
790,663	346,49
790,983	339,2
791,304	244,54
791,624	336,78
791,944	283,38
792,265	322,21
792,585	293,09
792,905	339,2
793,225	312,5
793,545	310,08
793,865	276,1
794,185	280,95
794,504	375,61
794,824	295,51
795,144	336,78
795,464	339,2
795,783	370,76
796,103	331,92
796,422	280,95
796,742	312,5
797,061	273,67
797,38	348,91
797,7	334,35
798,019	312,5
798,338	319,79
798,657	353,77
798,976	365,9
799,295	246,97
799,614	222,7
799,933	336,78
800,252	295,51
800,571	268,81
800,89	339,2
801,208	346,49
801,527	341,63
801,846	373,19
802,164	302,8
802,482	351,34
802,801	302,8
803,119	368,33
803,438	237,26
803,756	314,93
804,074	295,51
804,392	353,77
804,71	302,8
805,028	373,19
805,346	256,68
805,664	314,93
805,982	339,2
806,3	251,82
806,618	348,91
806,935	402,31
807,253	334,35
807,571	351,34
807,888	331,92
808,206	327,07
808,523	310,08
808,84	300,37
809,158	271,24
809,475	217,84
809,792	331,92
810,109	278,52
810,427	312,5
810,744	380,47
811,061	348,91
811,378	246,97
811,694	370,76
812,011	305,22
812,328	314,93
812,645	234,83
812,961	378,04
813,278	242,12
813,595	339,2
813,911	290,66
814,228	300,37
814,544	395,03
814,86	361,05
815,177	288,23
815,493	307,65
815,809	356,19
816,125	283,38
816,441	261,53
816,757	385,32
817,073	302,8
817,389	302,8
817,705	334,35
818,021	302,8
818,336	322,21
818,652	285,81
818,968	310,08
819,283	324,64
819,599	382,89
819,914	368,33
820,23	319,79
820,545	297,94
820,86	353,77
821,176	314,93
821,491	331,92
821,806	297,94
822,121	283,38
822,436	334,35
822,751	368,33
823,066	329,5
823,381	331,92
823,696	305,22
824,01	324,64
824,325	297,94
824,64	336,78
824,954	295,51
825,269	314,93
825,583	373,19
825,898	356,19
826,212	263,96
826,526	344,06
826,841	392,6
827,155	319,79
827,469	365,9
827,783	280,95
828,097	290,66
828,411	319,79
828,725	307,65
829,039	293,09
829,353	263,96
829,667	341,63
829,98	317,36
830,294	263,96
830,608	319,79
830,921	368,33
831,235	329,5
831,548	346,49
831,861	266,39
832,175	336,78
832,488	365,9
832,801	336,78
833,114	254,25
833,428	344,06
833,741	317,36
834,054	336,78
834,367	249,4
834,679	329,5
834,992	256,68
835,305	283,38
835,618	351,34
835,93	317,36
836,243	268,81
836,556	339,2
836,868	407,17
837,181	334,35
837,493	327,07
837,805	302,8
838,118	297,94
838,43	254,25
838,742	407,17
839,054	331,92
839,366	344,06
839,678	278,52
839,99	348,91
840,302	317,36
840,614	295,51
840,926	339,2
841,237	356,19
841,549	322,21
841,861	385,32
842,172	329,5
842,484	307,65
842,795	327,07
843,107	378,04
843,418	317,36
843,729	361,05
844,041	395,03
844,352	419,3
844,663	336,78
844,974	336,78
845,285	387,75
845,596	297,94
845,907	348,91
846,218	312,5
846,529	322,21
846,839	336,78
847,15	375,61
847,461	297,94
847,771	324,64
848,082	266,39
848,392	331,92
848,703	351,34
849,013	361,05
849,323	339,2
849,634	285,81
849,944	324,64
850,254	353,77
850,564	280,95
850,874	273,67
851,184	426,58
851,494	358,62
851,804	295,51
852,114	356,19
852,423	295,51
852,733	312,5
853,043	327,07
853,352	319,79
853,662	254,25
853,971	310,08
854,281	300,37
854,59	259,11
854,899	268,81
855,209	368,33
855,518	312,5
855,827	341,63
856,136	336,78
856,445	322,21
856,754	351,34
857,063	319,79
857,372	290,66
857,681	322,21
857,989	280,95
858,298	276,1
858,607	293,09
858,915	293,09
859,224	261,53
859,532	312,5
859,841	285,81
860,149	290,66
860,457	295,51
860,766	293,09
861,074	217,84
861,382	290,66
861,69	283,38
861,998	324,64
862,306	290,66
862,614	348,91
862,922	341,63
863,23	314,93
863,538	344,06
863,845	351,34
864,153	297,94
864,461	353,77
864,768	402,31
865,076	300,37
865,383	276,1
865,69	385,32
865,998	310,08
866,305	314,93
866,612	293,09
866,919	305,22
867,226	331,92
867,533	322,21
867,84	319,79
868,147	310,08
868,454	324,64
868,761	295,51
869,068	324,64
869,375	385,32
869,681	293,09
869,988	251,82
870,294	300,37
870,601	266,39
870,907	307,65
871,214	324,64
871,52	244,54
871,826	293,09
872,132	276,1
872,439	346,49
872,745	266,39
873,051	305,22
873,357	290,66
873,663	300,37
873,969	254,25
874,274	256,68
874,58	339,2
874,886	365,9
875,191	302,8
875,497	193,57
875,803	329,5
876,108	317,36
876,414	322,21
876,719	300,37
877,024	312,5
877,329	283,38
877,635	351,34
877,94	358,62
878,245	254,25
878,55	339,2
878,855	276,1
879,16	329,5
879,465	302,8
879,77	334,35
880,074	302,8
880,379	319,79
880,684	302,8
880,988	280,95
881,293	344,06
881,597	290,66
881,902	244,54
882,206	285,81
882,51	351,34
882,815	397,46
883,119	395,03
883,423	334,35
883,727	310,08
884,031	344,06
884,335	356,19
884,639	336,78
884,943	314,93
885,247	327,07
885,551	290,66
885,854	336,78
886,158	307,65
886,462	305,22
886,765	385,32
887,069	229,98
887,372	283,38
887,675	327,07
887,979	280,95
888,282	297,94
888,585	297,94
888,888	295,51
889,191	346,49
889,494	307,65
889,797	336,78
890,1	302,8
890,403	314,93
890,706	327,07
891,009	297,94
891,312	322,21
891,614	285,81
891,917	353,77
892,219	322,21
892,522	327,07
892,824	324,64
893,127	358,62
893,429	285,81
893,731	363,48
894,033	351,34
894,335	334,35
894,638	341,63
894,94	329,5
895,242	305,22
895,544	358,62
895,845	363,48
896,147	276,1
896,449	336,78
896,751	310,08
897,052	327,07
897,354	305,22
897,655	319,79
897,957	293,09
898,258	268,81
898,56	317,36
898,861	314,93
899,162	259,11
899,463	237,26
899,765	297,94
900,066	297,94
900,367	324,64
900,668	288,23
900,969	344,06
901,269	273,67
901,57	317,36
901,871	344,06
902,172	346,49
902,472	358,62
902,773	285,81
903,073	361,05
903,374	280,95
903,674	210,56
903,975	336,78
904,275	353,77
904,575	387,75
904,875	327,07
905,175	302,8
905,476	380,47
905,776	344,06
906,076	327,07
906,375	297,94
906,675	314,93
906,975	314,93
907,275	334,35
907,574	268,81
907,874	293,09
908,174	392,6
908,473	324,64
908,773	251,82
909,072	351,34
909,371	295,51
909,671	203,28
909,97	276,1
910,269	327,07
910,568	329,5
910,867	329,5
911,166	322,21
911,465	266,39
911,764	341,63
912,063	288,23
912,362	317,36
912,661	300,37
912,959	358,62
913,258	314,93
913,556	307,65
913,855	356,19
914,153	327,07
914,452	254,25
914,75	363,48
915,048	297,94
915,347	365,9
915,645	263,96
915,943	382,89
916,241	334,35
916,539	293,09
916,837	385,32
917,135	324,64
917,433	271,24
917,73	310,08
918,028	319,79
918,326	297,94
918,623	348,91
918,921	268,81
919,218	307,65
919,516	331,92
919,813	327,07
920,11	341,63
920,408	419,3
920,705	268,81
921,002	339,2
921,299	297,94
921,596	285,81
921,893	339,2
922,19	263,96
922,487	288,23
922,784	278,52
923,081	363,48
923,377	259,11
923,674	353,77
923,971	346,49
924,267	312,5
924,564	368,33
924,86	331,92
925,156	324,64
925,453	293,09
925,749	266,39
926,045	307,65
926,341	314,93
926,637	329,5
926,933	276,1
927,229	305,22
927,525	307,65
927,821	280,95
928,117	336,78
928,413	334,35
928,708	232,41
929,004	317,36
929,3	370,76
929,595	322,21
929,891	334,35
930,186	336,78
930,481	288,23
930,777	426,58
931,072	339,2
931,367	280,95
931,662	312,5
931,957	336,78
932,252	322,21
932,547	278,52
932,842	331,92
933,137	310,08
933,432	307,65
933,726	334,35
934,021	351,34
934,316	280,95
934,61	327,07
934,905	307,65
935,199	382,89
935,494	324,64
935,788	293,09
936,082	297,94
936,376	307,65
936,671	319,79
936,965	329,5
937,259	310,08
937,553	341,63
937,847	331,92
938,141	307,65
938,434	380,47
938,728	288,23
939,022	368,33
939,316	300,37
939,609	278,52
939,903	266,39
940,196	283,38
940,49	297,94
940,783	331,92
941,076	191,14
941,37	271,24
941,663	232,41
941,956	365,9
942,249	348,91
942,542	385,32
942,835	346,49
943,128	307,65
943,421	351,34
943,714	409,59
944,006	307,65
944,299	259,11
944,592	341,63
944,884	314,93
945,177	407,17
945,469	302,8
945,762	385,32
946,054	217,84
946,346	300,37
946,639	317,36
946,931	246,97
947,223	351,34
947,515	310,08
947,807	283,38
948,099	249,4
948,391	324,64
948,683	314,93
948,974	312,5
949,266	373,19
949,558	331,92
949,85	358,62
950,141	290,66
950,433	314,93
950,724	290,66
951,015	256,68
951,307	307,65
951,598	302,8
951,889	314,93
952,18	336,78
952,472	339,2
952,763	278,52
953,054	344,06
953,344	295,51
953,635	346,49
953,926	322,21
954,217	312,5
954,508	251,82
954,798	348,91
955,089	263,96
955,379	310,08
955,67	363,48
955,96	322,21
956,251	249,4
956,541	232,41
956,831	263,96
957,121	334,35
957,412	348,91
957,702	336,78
957,992	268,81
958,282	334,35
958,572	305,22
958,861	385,32
959,151	395,03
959,441	317,36
959,731	261,53
960,02	256,68
960,31	273,67
960,599	302,8
960,889	322,21
961,178	259,11
961,468	314,93
961,757	266,39
962,046	280,95
962,335	344,06
962,624	312,5
962,913	319,79
963,202	285,81
963,491	317,36
963,78	295,51
964,069	310,08
964,358	327,07
964,647	261,53
964,935	249,4
965,224	285,81
965,512	307,65
965,801	307,65
966,089	273,67
966,378	307,65
966,666	329,5
966,954	365,9
967,242	322,21
967,531	232,41
967,819	244,54
968,107	361,05
968,395	351,34
968,683	285,81
968,971	312,5
969,258	276,1
969,546	295,51
969,834	339,2
970,121	397,46
970,409	290,66
970,696	363,48
970,984	251,82
971,271	370,76
971,559	356,19
971,846	293,09
972,133	266,39
972,42	312,5
972,708	305,22
972,995	370,76
973,282	290,66
973,569	348,91
973,855	363,48
974,142	348,91
974,429	314,93
974,716	297,94
975,002	273,67
975,289	305,22
975,576	273,67
975,862	353,77
976,148	395,03
976,435	339,2
976,721	300,37
977,007	271,24
977,294	324,64
977,58	288,23
977,866	278,52
978,152	336,78
978,438	399,88
978,724	251,82
979,01	283,38
979,295	351,34
979,581	268,81
979,867	261,53
980,153	312,5
980,438	276,1
980,724	290,66
981,009	375,61
981,294	288,23
981,58	382,89
981,865	280,95
982,15	273,67
982,436	327,07
982,721	327,07
983,006	280,95
983,291	254,25
983,576	290,66
983,861	263,96
984,145	283,38
984,43	297,94
984,715	319,79
985	351,34
985,284	261,53
985,569	334,35
985,853	341,63
986,138	365,9
986,422	353,77
986,706	317,36
986,991	334,35
987,275	280,95
987,559	210,56
987,843	329,5
988,127	263,96
988,411	261,53
988,695	268,81
988,979	283,38
989,263	327,07
989,546	261,53
989,83	263,96
990,114	365,9
990,397	344,06
990,681	331,92
990,964	317,36
991,247	276,1
991,531	341,63
991,814	319,79
992,097	344,06
992,38	312,5
992,664	334,35
992,947	348,91
993,23	346,49
993,513	358,62
993,795	344,06
994,078	368,33
994,361	288,23
994,644	341,63
994,926	244,54
995,209	363,48
995,492	322,21
995,774	293,09
996,056	402,31
996,339	285,81
996,621	271,24
996,903	344,06
997,186	344,06
997,468	314,93
997,75	305,22
998,032	312,5
998,314	334,35
998,596	285,81
998,877	329,5
999,159	339,2
999,441	310,08
999,723	261,53
1000,004	290,66
1000,286	341,63
1000,567	331,92
1000,849	244,54
1001,13	278,52
1001,411	317,36
1001,693	305,22
1001,974	344,06
1002,255	314,93
1002,536	273,67
1002,817	268,81
1003,098	344,06
1003,379	353,77
1003,66	310,08
1003,941	295,51
1004,222	293,09
1004,502	295,51
1004,783	295,51
1005,063	317,36
1005,344	310,08
1005,624	358,62
1005,905	353,77
1006,185	324,64
1006,465	307,65
1006,746	336,78
1007,026	297,94
1007,306	329,5
1007,586	300,37
1007,866	351,34
1008,146	365,9
1008,426	365,9
1008,706	263,96
1008,985	327,07
1009,265	305,22
1009,545	302,8
1009,824	263,96
1010,104	344,06
1010,383	283,38
1010,663	348,91
1010,942	276,1
1011,221	251,82
1011,501	368,33
1011,78	310,08
1012,059	346,49
1012,338	300,37
1012,617	302,8
1012,896	297,94
1013,175	288,23
1013,454	283,38
1013,733	380,47
1014,011	290,66
1014,29	312,5
1014,569	273,67
1014,847	305,22
1015,126	305,22
1015,404	307,65
1015,683	276,1
1015,961	251,82
1016,239	334,35
1016,517	266,39
1016,795	327,07
1017,074	295,51
1017,352	307,65
1017,63	305,22
1017,907	378,04
1018,185	312,5
1018,463	237,26
1018,741	239,69
1019,019	256,68
1019,296	380,47
1019,574	266,39
1019,851	319,79
1020,129	234,83
1020,406	237,26
1020,683	295,51
1020,961	319,79
1021,238	319,79
1021,515	319,79

